Data length:          7306
Time(min)    Intensity(mv)
  0.0000          -0.9910
  0.0017          -1.0290
  0.0033          -1.0280
  0.0050          -1.4170
  0.0067          -1.3490
  0.0083          -1.3830
  0.0100          -1.1940
  0.0117          -1.2010
  0.0133          -1.2580
  0.0150          -1.3210
  0.0167          -1.5730
  0.0183          -1.3650
  0.0200          -1.3560
  0.0217          -0.9910
  0.0233          -0.9390
  0.0250          -1.0400
  0.0267          -1.0970
  0.0283          -1.4340
  0.0300          -1.4410
  0.0317          -1.5220
  0.0333          -1.2770
  0.0350          -1.2090
  0.0367          -1.2250
  0.0383          -1.3120
  0.0400          -1.3630
  0.0417          -1.2540
  0.0433          -1.1190
  0.0450          -1.0970
  0.0467          -1.1730
  0.0483          -1.1110
  0.0500          -1.2550
  0.0517          -1.2510
  0.0533          -1.3230
  0.0550          -1.5130
  0.0567          -1.3050
  0.0583          -1.2360
  0.0600          -1.0560
  0.0617          -0.8550
  0.0633          -0.9760
  0.0650          -1.0750
  0.0667          -1.3450
  0.0683          -1.2550
  0.0700          -1.3170
  0.0717          -1.2030
  0.0733          -1.1730
  0.0750          -1.3650
  0.0767          -1.3380
  0.0783          -1.3690
  0.0800          -1.1830
  0.0817          -1.2160
  0.0833          -1.0220
  0.0850          -1.0660
  0.0867          -1.1780
  0.0883          -1.1640
  0.0900          -1.3910
  0.0917          -1.3830
  0.0933          -1.3680
  0.0950          -1.1590
  0.0967          -1.0700
  0.0983          -1.2280
  0.1000          -1.2120
  0.1017          -1.3510
  0.1033          -1.1970
  0.1050          -0.9990
  0.1067          -1.0440
  0.1083          -1.0840
  0.1100          -1.3810
  0.1117          -1.4200
  0.1133          -1.5160
  0.1150          -1.3970
  0.1167          -1.3000
  0.1183          -1.2210
  0.1200          -1.0030
  0.1217          -1.0310
  0.1233          -0.9080
  0.1250          -1.1250
  0.1267          -1.1900
  0.1283          -1.3870
  0.1300          -1.2240
  0.1317          -1.2850
  0.1333          -1.1430
  0.1350          -1.1340
  0.1367          -1.3930
  0.1383          -1.3370
  0.1400          -1.3890
  0.1417          -1.0840
  0.1433          -0.9660
  0.1450          -0.9560
  0.1467          -1.0350
  0.1483          -1.4070
  0.1500          -1.5240
  0.1517          -1.5900
  0.1533          -1.5170
  0.1550          -1.4240
  0.1567          -1.2420
  0.1583          -1.2170
  0.1600          -1.3950
  0.1617          -1.3810
  0.1633          -1.2750
  0.1650          -1.1870
  0.1667          -1.0170
  0.1683          -1.0070
  0.1700          -1.1920
  0.1717          -1.2620
  0.1733          -1.3110
  0.1750          -1.5490
  0.1767          -1.4660
  0.1783          -1.3950
  0.1800          -1.2690
  0.1817          -1.0570
  0.1833          -1.0320
  0.1850          -0.9380
  0.1867          -1.1260
  0.1883          -1.1750
  0.1900          -1.3720
  0.1917          -1.4370
  0.1933          -1.3420
  0.1950          -1.3550
  0.1967          -1.2750
  0.1983          -1.4560
  0.2000          -1.2670
  0.2017          -1.2070
  0.2033          -1.0980
  0.2050          -0.9440
  0.2067          -1.2000
  0.2083          -1.1560
  0.2100          -1.4060
  0.2117          -1.4730
  0.2133          -1.3970
  0.2150          -1.4710
  0.2167          -1.3130
  0.2183          -1.3900
  0.2200          -1.2930
  0.2217          -1.1930
  0.2233          -1.1400
  0.2250          -1.1410
  0.2267          -1.2220
  0.2283          -1.1430
  0.2300          -1.2390
  0.2317          -1.2290
  0.2333          -1.2620
  0.2350          -1.3740
  0.2367          -1.5630
  0.2383          -1.5140
  0.2400          -1.3740
  0.2417          -1.2570
  0.2433          -0.9070
  0.2450          -0.9950
  0.2467          -1.0870
  0.2483          -1.2390
  0.2500          -1.3010
  0.2517          -1.3570
  0.2533          -1.3140
  0.2550          -1.2240
  0.2567          -1.3840
  0.2583          -1.2690
  0.2600          -1.3150
  0.2617          -1.2410
  0.2633          -0.9570
  0.2650          -0.9610
  0.2667          -0.9280
  0.2683          -1.2060
  0.2700          -1.3030
  0.2717          -1.4820
  0.2733          -1.5780
  0.2750          -1.2960
  0.2767          -1.3600
  0.2783          -1.2100
  0.2800          -1.3480
  0.2817          -1.3420
  0.2833          -1.3930
  0.2850          -1.3040
  0.2867          -1.3190
  0.2883          -1.4190
  0.2900          -1.1960
  0.2917          -1.2860
  0.2933          -1.2170
  0.2950          -1.3620
  0.2967          -1.4050
  0.2983          -1.4070
  0.3000          -1.1790
  0.3017          -1.0920
  0.3033          -1.0660
  0.3050          -0.9460
  0.3067          -1.3610
  0.3083          -1.2590
  0.3100          -1.4300
  0.3117          -1.3680
  0.3133          -1.2110
  0.3150          -1.2260
  0.3167          -1.1970
  0.3183          -1.4790
  0.3200          -1.3420
  0.3217          -1.3400
  0.3233          -1.1630
  0.3250          -0.8720
  0.3267          -1.0140
  0.3283          -1.0860
  0.3300          -1.2980
  0.3317          -1.5500
  0.3333          -1.4950
  0.3350          -1.4480
  0.3367          -1.1310
  0.3383          -1.1190
  0.3400          -0.9330
  0.3417          -1.0020
  0.3433          -0.9960
  0.3450          -1.1070
  0.3467          -1.1840
  0.3483          -1.4040
  0.3500          -1.5120
  0.3517          -1.3530
  0.3533          -1.4400
  0.3550          -1.2900
  0.3567          -1.5130
  0.3583          -1.3820
  0.3600          -1.2430
  0.3617          -1.0310
  0.3633          -0.7420
  0.3650          -0.9700
  0.3667          -0.9710
  0.3683          -1.4670
  0.3700          -1.5940
  0.3717          -1.6580
  0.3733          -1.6340
  0.3750          -1.3320
  0.3767          -1.1990
  0.3783          -1.0720
  0.3800          -1.2120
  0.3817          -1.1140
  0.3833          -1.0340
  0.3850          -1.1020
  0.3867          -0.9030
  0.3883          -1.1450
  0.3900          -1.3560
  0.3917          -1.6090
  0.3933          -1.6950
  0.3950          -1.5090
  0.3967          -1.4310
  0.3983          -1.0280
  0.4000          -1.0370
  0.4017          -0.8330
  0.4033          -0.9160
  0.4050          -0.9490
  0.4067          -1.1230
  0.4083          -1.2180
  0.4100          -1.2360
  0.4117          -1.3220
  0.4133          -1.2760
  0.4150          -1.3490
  0.4167          -1.3220
  0.4183          -1.4780
  0.4200          -1.3480
  0.4217          -1.1820
  0.4233          -0.9980
  0.4250          -0.7050
  0.4267          -0.9780
  0.4283          -1.0910
  0.4300          -1.5010
  0.4317          -1.5590
  0.4333          -1.4810
  0.4350          -1.4070
  0.4367          -1.2140
  0.4383          -1.1920
  0.4400          -1.0280
  0.4417          -1.1110
  0.4433          -1.1550
  0.4450          -0.9680
  0.4467          -1.1430
  0.4483          -1.0470
  0.4500          -1.0950
  0.4517          -1.3810
  0.4533          -1.5590
  0.4550          -1.6150
  0.4567          -1.3630
  0.4583          -1.2360
  0.4600          -0.9110
  0.4617          -1.0790
  0.4633          -1.0130
  0.4650          -1.1000
  0.4667          -1.2050
  0.4683          -1.3730
  0.4700          -1.4710
  0.4717          -1.4300
  0.4733          -1.4430
  0.4750          -1.1030
  0.4767          -1.4050
  0.4783          -1.3410
  0.4800          -1.3520
  0.4817          -1.2700
  0.4833          -1.0020
  0.4850          -1.0470
  0.4867          -1.0620
  0.4883          -1.3020
  0.4900          -1.4530
  0.4917          -1.6370
  0.4933          -1.5540
  0.4950          -1.3790
  0.4967          -1.2240
  0.4983          -1.2040
  0.5000          -1.1380
  0.5017          -1.1400
  0.5033          -1.1390
  0.5050          -1.1980
  0.5067          -1.0020
  0.5083          -1.2280
  0.5100          -1.2710
  0.5117          -1.4010
  0.5133          -1.6530
  0.5150          -1.5240
  0.5167          -1.4970
  0.5183          -1.0930
  0.5200          -0.8600
  0.5217          -0.6430
  0.5233          -0.7370
  0.5250          -0.8980
  0.5267          -1.1520
  0.5283          -1.4320
  0.5300          -1.4140
  0.5317          -1.5630
  0.5333          -1.3640
  0.5350          -1.2160
  0.5367          -1.0220
  0.5383          -1.2740
  0.5400          -1.2120
  0.5417          -1.3170
  0.5433          -1.3830
  0.5450          -0.9530
  0.5467          -1.0000
  0.5483          -1.0640
  0.5500          -1.3620
  0.5517          -1.5190
  0.5533          -1.6090
  0.5550          -1.5010
  0.5567          -1.0970
  0.5583          -1.0850
  0.5600          -1.0820
  0.5617          -1.1740
  0.5633          -1.2810
  0.5650          -1.3020
  0.5667          -1.4150
  0.5683          -1.1080
  0.5700          -1.2140
  0.5717          -1.3550
  0.5733          -1.2890
  0.5750          -1.6060
  0.5767          -1.4500
  0.5783          -1.3420
  0.5800          -1.1940
  0.5817          -1.1410
  0.5833          -1.1010
  0.5850          -1.2140
  0.5867          -1.4650
  0.5883          -1.3900
  0.5900          -1.4240
  0.5917          -1.1620
  0.5933          -1.0750
  0.5950          -0.9650
  0.5967          -0.9740
  0.5983          -1.0630
  0.6000          -0.9750
  0.6017          -1.1860
  0.6033          -1.1780
  0.6050          -1.1980
  0.6067          -1.0430
  0.6083          -1.1200
  0.6100          -1.2320
  0.6117          -1.5330
  0.6133          -1.6670
  0.6150          -1.5150
  0.6167          -1.4330
  0.6183          -0.9730
  0.6200          -0.9170
  0.6217          -1.0180
  0.6233          -1.1010
  0.6250          -1.4090
  0.6267          -1.2310
  0.6283          -1.2510
  0.6300          -1.0830
  0.6317          -1.1170
  0.6333          -1.3500
  0.6350          -1.3680
  0.6367          -1.4510
  0.6383          -1.1380
  0.6400          -1.1050
  0.6417          -0.7690
  0.6433          -0.6790
  0.6450          -0.7090
  0.6467          -0.6380
  0.6483          -0.8270
  0.6500          -0.7130
  0.6517          -0.7890
  0.6533          -0.7760
  0.6550          -0.8290
  0.6567          -0.8160
  0.6583          -0.8870
  0.6600          -0.8870
  0.6617          -0.5360
  0.6633          -0.5840
  0.6650          -0.4180
  0.6667          -0.5350
  0.6683          -1.0990
  0.6700          -1.1040
  0.6717          -1.2520
  0.6733          -1.0260
  0.6750          -0.6820
  0.6767          -0.4440
  0.6783          -0.3390
  0.6800          -0.3900
  0.6817          -0.2120
  0.6833          -0.2760
  0.6850           0.0360
  0.6867          -0.0620
  0.6883          -0.1360
  0.6900          -0.2860
  0.6917          -0.3740
  0.6933          -0.4730
  0.6950          -0.7460
  0.6967          -0.6310
  0.6983          -0.7630
  0.7000          -0.3580
  0.7017          -0.4860
  0.7033          -0.4840
  0.7050          -0.3660
  0.7067          -0.0350
  0.7083           1.3700
  0.7100           3.0130
  0.7117           4.6870
  0.7133           5.4540
  0.7150           5.0340
  0.7167           3.8180
  0.7183           2.4470
  0.7200           1.6730
  0.7217           1.0470
  0.7233           0.8630
  0.7250           0.5910
  0.7267           0.1920
  0.7283          -0.2780
  0.7300          -0.9110
  0.7317          -1.0420
  0.7333          -1.2290
  0.7350          -0.9480
  0.7367          -0.9680
  0.7383          -1.1010
  0.7400          -0.9400
  0.7417          -1.1680
  0.7433          -0.8570
  0.7450          -0.9380
  0.7467          -0.9030
  0.7483          -0.9270
  0.7500          -1.1240
  0.7517          -0.8460
  0.7533          -0.8520
  0.7550          -0.4490
  0.7567          -0.3160
  0.7583          -0.2070
  0.7600          -0.1150
  0.7617          -0.2230
  0.7633          -0.3420
  0.7650          -0.6920
  0.7667          -0.7860
  0.7683          -1.0710
  0.7700          -1.1200
  0.7717          -1.2710
  0.7733          -1.0640
  0.7750          -1.0860
  0.7767          -1.1130
  0.7783          -1.0660
  0.7800          -1.2360
  0.7817          -1.1130
  0.7833          -0.9400
  0.7850          -0.8190
  0.7867          -0.7840
  0.7883          -1.0550
  0.7900          -1.1840
  0.7917          -1.4800
  0.7933          -1.4300
  0.7950          -1.3040
  0.7967          -1.0770
  0.7983          -0.9310
  0.8000          -0.9410
  0.8017          -0.8000
  0.8033          -1.0000
  0.8050          -0.8920
  0.8067          -0.9600
  0.8083          -0.9850
  0.8100          -0.9850
  0.8117          -1.0370
  0.8133          -1.0860
  0.8150          -1.2240
  0.8167          -1.1400
  0.8183          -1.1650
  0.8200          -0.8930
  0.8217          -0.7930
  0.8233          -0.8000
  0.8250          -0.7000
  0.8267          -0.5370
  0.8283          -0.3180
  0.8300          -0.0260
  0.8317           0.4210
  0.8333           0.5450
  0.8350           0.8800
  0.8367           0.8020
  0.8383           0.3980
  0.8400           0.3150
  0.8417           0.0100
  0.8433          -0.0080
  0.8450          -0.0040
  0.8467          -0.1340
  0.8483          -0.2670
  0.8500          -0.6020
  0.8517          -0.6920
  0.8533          -0.8560
  0.8550          -0.8030
  0.8567          -0.6280
  0.8583          -0.7030
  0.8600          -0.6080
  0.8617          -0.8840
  0.8633          -0.9380
  0.8650          -0.9600
  0.8667          -0.8670
  0.8683          -0.8330
  0.8700          -0.8390
  0.8717          -0.8780
  0.8733          -1.2360
  0.8750          -1.2570
  0.8767          -1.1540
  0.8783          -0.9100
  0.8800          -0.6140
  0.8817          -0.5730
  0.8833          -0.6630
  0.8850          -0.9140
  0.8867          -1.0870
  0.8883          -0.9670
  0.8900          -0.9820
  0.8917          -0.9740
  0.8933          -1.0490
  0.8950          -1.1080
  0.8967          -1.4360
  0.8983          -1.2220
  0.9000          -1.0390
  0.9017          -0.7760
  0.9033          -0.4590
  0.9050          -0.5760
  0.9067          -0.5930
  0.9083          -0.8120
  0.9100          -0.9260
  0.9117          -1.3170
  0.9133          -1.2580
  0.9150          -1.2610
  0.9167          -1.0200
  0.9183          -0.6230
  0.9200          -0.5780
  0.9217          -0.5710
  0.9233          -0.9320
  0.9250          -1.0070
  0.9267          -1.0760
  0.9283          -0.9540
  0.9300          -0.7990
  0.9317          -0.9790
  0.9333          -1.0940
  0.9350          -1.2460
  0.9367          -1.2610
  0.9383          -1.0960
  0.9400          -0.8170
  0.9417          -0.6200
  0.9433          -0.6870
  0.9450          -0.7150
  0.9467          -1.1720
  0.9483          -1.2460
  0.9500          -1.1250
  0.9517          -1.1050
  0.9533          -0.9500
  0.9550          -1.1170
  0.9567          -1.1300
  0.9583          -1.1990
  0.9600          -1.1730
  0.9617          -0.9830
  0.9633          -0.8850
  0.9650          -0.7660
  0.9667          -0.9420
  0.9683          -1.0170
  0.9700          -1.2790
  0.9717          -1.4020
  0.9733          -1.6230
  0.9750          -1.5350
  0.9767          -1.3770
  0.9783          -1.1410
  0.9800          -0.7400
  0.9817          -0.8500
  0.9833          -0.7220
  0.9850          -0.9350
  0.9867          -1.0100
  0.9883          -1.0470
  0.9900          -1.1040
  0.9917          -1.0370
  0.9933          -1.3530
  0.9950          -1.3920
  0.9967          -1.4880
  0.9983          -1.2580
  1.0000          -0.8670
  1.0017          -0.6680
  1.0033          -0.4440
  1.0050          -0.7610
  1.0067          -0.8930
  1.0083          -1.3380
  1.0100          -1.5810
  1.0117          -1.4450
  1.0133          -1.4740
  1.0150          -1.1700
  1.0167          -1.0830
  1.0183          -1.0820
  1.0200          -1.0550
  1.0217          -0.9270
  1.0233          -0.7490
  1.0250          -0.7560
  1.0267          -0.6830
  1.0283          -1.0570
  1.0300          -1.2840
  1.0317          -1.4580
  1.0333          -1.4500
  1.0350          -1.3040
  1.0367          -1.2280
  1.0383          -1.0130
  1.0400          -1.1080
  1.0417          -0.9840
  1.0433          -1.1880
  1.0450          -1.1740
  1.0467          -1.0690
  1.0483          -1.0770
  1.0500          -0.8620
  1.0517          -0.9690
  1.0533          -0.9020
  1.0550          -1.0430
  1.0567          -0.8200
  1.0583          -0.6350
  1.0600          -0.5100
  1.0617          -0.0120
  1.0633          -0.0240
  1.0650           0.0970
  1.0667          -0.2190
  1.0683          -0.4700
  1.0700          -0.7010
  1.0717          -0.8230
  1.0733          -0.6740
  1.0750          -0.9260
  1.0767          -0.8640
  1.0783          -1.0120
  1.0800          -0.8110
  1.0817          -0.3640
  1.0833           0.3860
  1.0850           2.8380
  1.0867           8.7950
  1.0883          22.4380
  1.0900          46.9750
  1.0917          83.9830
  1.0933         131.5660
  1.0950         182.7960
  1.0967         225.8530
  1.0983         247.5180
  1.1000         239.6680
  1.1017         204.8770
  1.1033         158.1820
  1.1050         114.1080
  1.1067          81.8310
  1.1083          61.1900
  1.1100          46.9700
  1.1117          35.9910
  1.1133          27.1170
  1.1150          20.0600
  1.1167          14.6480
  1.1183          10.4690
  1.1200           7.4950
  1.1217           4.8780
  1.1233           3.1390
  1.1250           1.7000
  1.1267           0.7110
  1.1283          -0.1580
  1.1300          -0.5890
  1.1317          -0.6300
  1.1333          -0.8910
  1.1350          -0.4550
  1.1367          -0.8430
  1.1383          -0.9560
  1.1400          -1.0300
  1.1417          -1.0490
  1.1433          -0.6810
  1.1450          -0.4140
  1.1467          -0.2340
  1.1483          -0.4560
  1.1500          -0.4800
  1.1517          -0.6740
  1.1533          -0.4730
  1.1550          -0.2460
  1.1567          -0.0860
  1.1583           0.0130
  1.1600          -0.1690
  1.1617          -0.2550
  1.1633          -0.5830
  1.1650          -0.7560
  1.1667          -0.6490
  1.1683          -0.7770
  1.1700          -0.7620
  1.1717          -1.1130
  1.1733          -1.4530
  1.1750          -1.5720
  1.1767          -1.5720
  1.1783          -1.1140
  1.1800          -0.9940
  1.1817          -0.6840
  1.1833          -0.8670
  1.1850          -0.9780
  1.1867          -1.0820
  1.1883          -1.1470
  1.1900          -0.9190
  1.1917          -1.0010
  1.1933          -1.0050
  1.1950          -1.2370
  1.1967          -1.3490
  1.1983          -1.3090
  1.2000          -1.1870
  1.2017          -0.8240
  1.2033          -0.5380
  1.2050          -0.2560
  1.2067           0.2700
  1.2083           0.9800
  1.2100           1.8690
  1.2117           2.5240
  1.2133           2.8520
  1.2150           2.8910
  1.2167           2.5140
  1.2183           2.0980
  1.2200           1.6380
  1.2217           1.0790
  1.2233           0.5420
  1.2250           0.3020
  1.2267           0.1210
  1.2283           0.4030
  1.2300           0.2950
  1.2317           0.2250
  1.2333           0.1050
  1.2350           0.2130
  1.2367           1.0630
  1.2383           2.2720
  1.2400           4.0250
  1.2417           5.2060
  1.2433           5.9470
  1.2450           5.8290
  1.2467           5.0040
  1.2483           4.2260
  1.2500           3.0970
  1.2517           2.4110
  1.2533           1.7040
  1.2550           1.1950
  1.2567           0.7380
  1.2583           0.5200
  1.2600           0.4330
  1.2617           0.4400
  1.2633           0.4440
  1.2650           0.1660
  1.2667          -0.1530
  1.2683          -0.4820
  1.2700          -0.8350
  1.2717          -0.9770
  1.2733          -1.1340
  1.2750          -1.0220
  1.2767          -1.0200
